
// =========================================================================================================
// 2024-10-24, 14:40:37
//        Time [s]        Pos X [um]        Pos Y [um]        Pos Z [um]      Force A [uN]      Force B [uN]
// =========================================================================================================
           0.00000         999.97100         999.99500          15.29800          -0.95130          -0.02893
           0.10000         999.97100         999.99400          15.29800          -0.82380          -0.04803
           0.20000         999.97300         999.99400          24.72600           1.66252          -0.05440
           0.30000         999.97400         999.99500         235.96200           1.02500          -0.04803
           0.40000         999.97700         999.99500         342.03400           1.79002          -0.08624
           0.50000         999.97100         999.99500         415.29000          -0.18628           0.06023
           0.60000         996.89300         997.15700         415.30000           0.19623          -0.04166
           0.70000         992.42800         992.92300         415.30000          -0.44129          -0.02893
           0.80000         987.63300         987.98500         415.29900           1.40751           0.07934
           0.90000         985.48800         985.92100         415.30000           0.13248           0.07934
           1.00000         983.83900         984.25400         415.29900          -0.25003          -0.07987
           1.10000         978.80800         979.28300         415.29900           1.21625           0.09207
           1.20000         974.45900         975.08600         415.30000           1.08875          -0.00982
           1.30000         969.56600         970.62700         415.30000           0.06872          -0.08624
           1.40000         967.39400         968.46400         415.30000           0.00497           0.02839
           1.50000         965.22300         965.83700         415.30000           0.25998          -0.00982
           1.60000         960.97900         961.40600         415.29900           0.00497          -0.09261
           1.70000         955.94400         956.53300         415.30000           0.00497           0.06660
           1.80000         954.31600         954.34200         415.30000           0.06872           0.04750
           1.90000         951.61500         952.17500         415.29900           0.32373          -0.06714
           2.00000         947.40600         947.96500         415.30000           0.32373           0.02202
           2.10000         942.37200         942.96200         415.29900           1.21625           0.06660
           2.20000         938.55500         938.68900         415.29900           0.06872          -0.04803
           2.30000         936.38500         936.45600         415.29900          -0.12253          -0.11171
           2.40000         934.30800         934.28400         415.30000          -0.31379          -0.01619
           2.50000         929.31500         929.43700         415.29900           0.51499          -0.06714
           2.60000         924.56900         925.07600         415.30000           0.45123          -0.02893
           2.70000         922.93200         922.99800         415.30000           0.32373          -0.07350
           2.80000         920.08000         920.85900         415.29900           0.00497          -0.04166
           2.90000         915.71100         915.91300         415.30000           0.00497          -0.05440
           3.00000         911.48400         912.18900         415.30000          -0.12253          -0.06077
           3.10000         906.49900         907.21000         415.30000           0.19623          -0.06714
           3.20000         904.88100         905.10800         415.30000           1.08875           0.04113
           3.30000         902.18100         902.98400         415.30000           0.51499           0.00292
           3.40000         897.23900         897.99100         415.30000           0.57874           0.07297
           3.50000         892.87400         893.71700         415.30000           0.57874          -0.07350
           3.60000         888.64600         888.87300         415.29900           1.28001           0.09207
           3.70000         886.49800         886.76500         415.30000           0.13248           0.00292
           3.80000         883.63500         884.47500         415.30000           0.64249           0.00292
           3.90000         879.79800         880.11400         415.30000           1.40751           0.05386
           4.00000         875.50100         875.90700         415.30000           1.02500           0.02839
           4.10000         873.41000         873.62900         415.29900          -0.12253           0.03476
           4.20000         870.56200         871.45900         415.30000          -0.12253          -0.02256
           4.30000         866.21900         866.64000         415.30000           1.47126           0.05386
           4.40000         861.33100         862.23900         415.29900           0.64249           0.04750
           4.50000         857.52700         857.37400         415.29900           0.64249          -0.02893
           4.60000         854.76800         855.76900         415.29900           1.15250           0.01565
           4.70000         852.69500         853.06700         415.29900           0.51499          -0.02256
           4.80000         847.74300         848.18600         415.30000           0.51499          -0.04166
           4.90000         843.39900         844.37500         415.29900           1.34376          -0.01619
           5.00000         839.15600         839.51200         415.30000           0.19623          -0.06714
           5.10000         836.86600         837.31600         415.30000          -0.44129          -0.05440
           5.20000         835.30700         835.16600         415.30000           0.57874          -0.01619
           5.30000         829.85500         830.89800         415.30000          -0.18628          -0.04166
           5.40000         825.45800         826.05600         415.30000           0.45123          -0.04803
           5.50000         823.24100         823.89400         415.30000           0.83374          -0.00345
           5.60000         821.01000         821.63400         415.30000           0.45123           0.04750
           5.70000         816.68900         817.27500         415.30000           0.64249           0.09844
           5.80000         812.38700         813.03700         415.29900          -0.63254          -0.00345
           5.90000         807.42200         808.14100         415.30000          -0.56879          -0.07987
           6.00000         805.79400         806.05800         415.29900          -0.44129          -0.06077
           6.10000         803.22400         803.77300         415.30000          -0.50504          -0.06714
           6.20000         798.16700         798.96300         415.29900          -0.63254          -0.02256
           6.30000         794.34600         794.53500         415.29900          -0.44129          -0.00345
           6.40000         789.51400         790.23700         415.29900          -0.31379          -0.04166
           6.50000         787.33300         788.17800         415.29800           0.57874           0.07297
           6.60000         784.60700         785.33500         415.29900           1.79002           0.01565
           6.70000         780.80600         781.08300         415.29900          -0.31379           0.00292
           6.80000         775.88300         776.67100         415.29900           0.83374          -0.03529
           6.90000         773.69100         774.49700         415.29900           0.13248           0.08571
           7.00000         771.51100         771.91200         415.29800           0.25998          -0.06714
           7.10000         766.66300         767.46400         415.29800           1.02500           0.04113
           7.20000         762.84300         763.21000         415.29900           0.76999           0.05386
           7.30000         757.99400         758.25200         415.29800           0.83374           0.07934
           7.40000         755.88400         756.62600         415.29800           0.83374          -0.04803
           7.50000         754.22100         754.05900         415.29800          -0.18628          -0.01619
           7.60000         748.67500         749.07400         415.29800           0.96125           0.04750
           7.70000         744.90800         745.33800         415.29800           0.06872           0.02202
           7.80000         742.83700         743.20600         415.29800          -0.37754          -0.07350
           7.90000         739.96000         740.37600         415.29800           0.45123           0.02839
           8.00000         735.59900         736.16300         415.29800           0.00497           0.02202
           8.10000         730.71600         731.18200         415.29800          -0.31379          -0.03529
           8.20000         726.37400         726.98900         415.29800           1.28001          -0.00982
           8.30000         724.21500         724.69200         415.29700           1.02500           0.06023
           8.40000         722.15000         722.50400         415.29800           1.02500           0.09207
           8.50000         717.12000         717.69600         415.29800           0.00497          -0.03529
           8.60000         712.79300         713.29800         415.29700          -0.25003          -0.06714
           8.70000         708.56300         709.10400         415.29700           0.13248          -0.03529
           8.80000         706.31200         706.85800         415.29700           0.51499           0.06023
           8.90000         703.54200         704.06600         415.29800           0.32373          -0.03529
           9.00000         699.30100         699.83400         415.29600           0.57874           0.04113
           9.10000         694.81500         695.37900         415.29700           0.19623          -0.06077
           9.20000         693.25400         693.76000         415.29700           1.21625           0.02839
           9.30000         690.46800         691.16700         415.29700          -0.12253          -0.05440
           9.40000         686.18700         686.74400         415.29700           0.96125           0.08571
           9.50000         681.21400         681.96600         415.29700          -0.05878           0.09207
           9.60000         676.85700         677.50300         415.29700          -0.31379          -0.05440
           9.70000         675.22300         675.34200         415.29700           1.66252           0.03476
           9.80000         672.64900         673.27900         415.29700           0.83374           0.07297
           9.90000         668.19100         668.31700         415.29700          -0.76005          -0.05440
          10.00000         663.83500         663.43400         415.29600          -0.88755          -0.03529
          10.10000         658.96800         659.63300         415.29700          -0.50504          -0.07350
          10.20000         657.43500         657.45500         415.29700           0.13248          -0.04803
          10.30000         654.06000         654.84700         415.29700           1.15250          -0.02256
          10.40000         650.25900         650.43100         415.29800          -0.25003           0.00292
          10.50000         645.36400         646.21900         415.29700           0.51499           0.03476
          10.60000         643.17200         643.37600         415.29700          -0.69630          -0.09898
          10.70000         640.98000         641.20100         415.29700           0.51499           0.08571
          10.80000         636.76300         637.39900         415.29700           0.70624           0.02202
          10.90000         632.28000         632.52000         415.29700          -1.20631          -0.06714
          11.00000         627.44900         627.69600         415.29700           0.32373          -0.01619
          11.10000         625.35700         626.12300         415.29600           0.38748           0.00292
          11.20000         623.08000         623.86400         415.29800           0.76999          -0.00982
          11.30000         618.11700         619.10000         415.29800           1.02500           0.07297
          11.40000         614.31900         614.64600         415.29700          -0.69630          -0.02893
          11.50000         609.42400         610.39400         415.29800           0.32373           0.04750
          11.60000         607.25800         607.62600         415.29800          -0.05878           0.07297
          11.70000         605.08300         605.43600         415.29700          -1.01505          -0.01619
          11.80000         600.84800         600.56400         415.29700           0.89750           0.04113
          11.90000         595.81600         596.76100         415.29700          -0.44129          -0.08624
          12.00000         593.63800         594.58400         415.29700          -0.31379          -0.03529
          12.10000         591.01200         591.94200         415.29700          -0.76005          -0.01619
          12.20000         587.25900         587.55600         415.29600          -0.56879           0.00929
          12.30000         583.42100         583.32500         415.29700          -0.76005           0.01565
          12.40000         578.00700         578.32200         415.29600           0.57874           0.05386
          12.50000         575.78200         576.27200         415.29800          -0.12253          -0.06714
          12.60000         573.53800         574.05200         415.29700           0.76999           0.04113
